# Time-averaged data for fix density
# step (fs), temperature (K), density (g/cm^3)
6000 337.787 0.51709
7000 342.74 0.537277
8000 343.216 0.563179
9000 343.765 0.572375
10000 343.391 0.577968
11000 342.859 0.586034
12000 342.85 0.588194
13000 342.45 0.584472
14000 344.141 0.57977
15000 344.258 0.583027
16000 343.699 0.589802
17000 343.404 0.592308
18000 342.784 0.587113
19000 343.878 0.580701
20000 343.564 0.581318
21000 343.084 0.579268
22000 342.504 0.585508
23000 344.1 0.579016
24000 342.948 0.580111
25000 341.675 0.579518
26000 345.358 0.577944
27000 344.284 0.581825
28000 343.749 0.588556
29000 342.7 0.585157
30000 344.813 0.581745
31000 343.099 0.577212
32000 344.031 0.581258
33000 343.42 0.580726
34000 345.242 0.57535
35000 342.563 0.577938
36000 343.532 0.58535
37000 343.6 0.578604
38000 342.522 0.578654
39000 341.888 0.57963
40000 342.65 0.582292
41000 343.401 0.579577
42000 341.364 0.575727
43000 342.724 0.578352
44000 342.668 0.57931
45000 343.053 0.58224
46000 343.373 0.575804
47000 342.584 0.575128
48000 343.506 0.575338
49000 342.905 0.577861
50000 343.577 0.582624
51000 342.785 0.578041
52000 343.343 0.573986
53000 341.881 0.577389
54000 342.8 0.578437
55000 342.092 0.575347
56000 342.268 0.575677
57000 343.446 0.578503
58000 341.861 0.575969
59000 343.794 0.572013
60000 343.121 0.566833
61000 341.495 0.577458
62000 342.769 0.577792
63000 343.493 0.573131
64000 342.968 0.572115
65000 344.304 0.575597
66000 341.8 0.574782
67000 343.343 0.566768
68000 342.064 0.568783
69000 344.74 0.571694
70000 342.558 0.575236
71000 342.049 0.577608
72000 342.849 0.572669
73000 342.445 0.576704
74000 343.702 0.574931
75000 345.408 0.566858
76000 344.14 0.565072
77000 344.242 0.569098
78000 344.708 0.575077
79000 343.529 0.570802
80000 342.217 0.561663
81000 340.437 0.564644
82000 344.009 0.577517
83000 344.472 0.565723
84000 343.303 0.565649
85000 341.398 0.575654
86000 342.827 0.578148
87000 341.561 0.572159
88000 342.236 0.575156
89000 343.931 0.578918
90000 343.847 0.574619
91000 343.938 0.574517
92000 342.427 0.573893
93000 343.462 0.570958
94000 342.333 0.569751
95000 343.679 0.568231
96000 343.185 0.567056
97000 340.816 0.569311
98000 343.87 0.571273
99000 344.532 0.56663
100000 342.805 0.571194
101000 343.091 0.567549
102000 342.831 0.56644
103000 343.056 0.569622
104000 343.357 0.566092
