# Time-averaged data for fix density
# step (fs), temperature (K), density (g/cm^3)
6000 337.736 0.515
7000 342.635 0.534112
8000 343.126 0.55536
9000 343.305 0.568201
10000 343.637 0.571538
11000 343.092 0.577767
12000 342.712 0.582913
13000 344.251 0.585223
14000 343.02 0.580709
15000 343.06 0.584054
16000 342.897 0.576445
17000 343.705 0.579894
18000 342.757 0.578678
19000 343.517 0.58034
20000 342.94 0.579386
21000 342.177 0.579166
22000 343.139 0.578819
23000 343.469 0.577769
24000 342.204 0.582153
25000 344.757 0.579474
26000 343.701 0.575887
27000 343.185 0.57968
28000 343.357 0.581268
29000 343.592 0.579247
30000 343.85 0.581947
31000 344.302 0.580349
32000 345.927 0.578972
33000 343.314 0.582193
34000 343.555 0.586708
35000 341.261 0.582936
36000 343.54 0.579643
37000 344.35 0.577623
38000 343.444 0.576846
39000 343.42 0.580377
40000 343.748 0.575642
41000 344.226 0.580563
42000 344.395 0.57346
43000 342.78 0.571446
44000 342.168 0.577569
45000 342.558 0.575248
46000 343.969 0.577391
47000 341.541 0.574088
48000 343.385 0.573261
49000 342.128 0.570846
50000 342.263 0.576057
51000 343.032 0.579041
52000 344.527 0.572912
53000 343.792 0.576355
54000 342.138 0.577459
55000 343.656 0.577709
56000 343.59 0.565708
57000 341.62 0.57187
58000 342.675 0.571874
59000 342.485 0.575663
60000 343.146 0.58107
61000 344.276 0.572383
62000 343.277 0.572053
63000 344.282 0.574619
64000 342.689 0.577647
65000 343.541 0.573861
66000 345.244 0.577658
67000 341.288 0.573046
68000 343.398 0.575917
69000 344.25 0.576903
70000 344.416 0.574054
71000 344.195 0.568776
72000 342.456 0.57515
73000 343.057 0.579767
74000 342.776 0.573498
75000 343.622 0.5744
76000 342.679 0.575873
77000 343.681 0.575789
78000 343.485 0.576745
79000 344.685 0.574314
80000 342.65 0.566905
81000 341.27 0.569762
82000 342.218 0.57006
83000 342.345 0.56811
84000 342.312 0.573028
85000 343.665 0.569564
86000 342.859 0.569103
87000 342.78 0.572561
88000 343.019 0.569945
89000 341.409 0.568876
90000 343.174 0.573576
91000 343.741 0.563894
92000 344.557 0.561373
93000 343.355 0.564653
94000 343.088 0.573579
95000 344.314 0.571528
96000 342.102 0.574346
97000 343.27 0.562856
98000 344.033 0.570702
99000 340.986 0.577391
100000 342.381 0.580744
101000 342.649 0.578743
102000 342.49 0.570989
103000 341.118 0.570424
104000 344.021 0.571281
